; Epics Scan 1 dimensional scan
;  current scan  = 1
;  scan dimension= 1
;  scan prefix   = 13IDE:
; PV list:
; Storage Ring Current (S:SRcurrentAI.VAL)	 = 85.9415
; Undulator Energy (ID13ds:Energy.VAL)	 = 5.6178
; Undulator Gap (ID13ds:Gap.VAL)	 = 11.9309
; Undulator Harmonic (ID13ds:HarmonicValue.VAL)	 = 1.0000
; ID H Beam Pos (BL13:SRID:HPosition.VAL)	 = 0.426
; ID H Beam Angle (BL13:SRID:HAngle.VAL)	 = -403
; ID V Beam Pos (BL13:SRID:VPosition.VAL)	 = -0.158
; ID V Beam Angle (BL13:SRID:VAngle.VAL)	 = 82
; mono d spacing (13IDE:En:dspace)	 = 3.13477
; Mono Energy drive val (13IDE:En:Energy.VAL)	 = 17016.00000
; Mono Energy readback (13IDE:En:E_RBV)	 = 17016.00255
; FOE Mono angle readback (13IDA:m65.RBV)	 = 6.67388
; mono theta offset (13IDA:m65.OFF)	 = 17.51972
; 2nd XTAL pitch (13IDA:m67.VAL)	 = -0.1660
; 2nd XTAL roll (13IDA:m68.VAL)	 = 1.0940
; 2nd XTAL pitch piezo (13IDA:DAC1_7.VAL)	 = 3.719
; 2nd XTAL roll piezo (13IDA:DAC1_8.VAL)	 = 4.956
; I0 preamp sensitivity (13IDE:A1sens_num.VAL)	 = 10
; I0 preamp units (13IDE:A1sens_unit.VAL)	 = nA/V
; I1 preamp sensitivity (13IDE:A2sens_num.VAL)	 = 20
; I1 preamp units (13IDE:A2sens_unit.VAL)	 = nA/V
; I2 preamp sensitivity (13IDE:A3sens_num.VAL)	 = 5
; I2 preamp units (13IDE:A3sens_unit.VAL)	 = uA/V
; I0 current (uA) (13XRM:ION:Current)	 =      0.00241
; I0 absorbed flux (Hz) (13XRM:ION:FluxAbs)	 =    2.828e+07
; I0 transmitted flux (Hz) (13XRM:ION:FluxOut)	 =    3.714e+10
; I0 input voltage (13XRM:ION:Volts)	 = 13IDE:userTran1.D
; I0 input amplifier (13XRM:ION:Amp)	 = 13IDE:A1
; I0 chamber length (cm) (13XRM:ION:Length)	 = 20.0
; I0 chamber gas (13XRM:ION:Gas)	 = He
; FOE H Slit Pos (13IDA:m5.VAL)	 = 1.1002
; FOE H Slit Wid (13IDA:m6.VAL)	 = 0.8000
; FOE H Slit Pos (13IDA:m7.VAL)	 = -0.4001
; FOE V Slit Wid (13IDA:m8.VAL)	 = 0.2500
; E Mono Height (13IDA:m66.VAL)	 = 13.5920
; E Mono Pitch (13IDA:m67.VAL)	 = -0.1660
; E Mono Roll (13IDA:m68.VAL)	 = 1.0940
; Table Slit Bottom (13IDE:m21.VAL)	 = 0.156
; Table Slit Top (13IDE:m22.VAL)	 = -0.076
; Table Slit Inboard (13IDE:m23.VAL)	 = 0.087
; Table Slit Outboard (13IDE:m24.VAL)	 = 0.235
; KB V mirror stripe (13IDE:m7.VAL)	 = 4.0000
; KB V mirror up height (13IDE:m8.VAL)	 = -0.3488
; KB V mirror dn force (13IDE:m9.VAL)	 = 6.9500
; KB V mirror up force (13IDE:m10.VAL)	 = 4.8500
; KB V mirror dn heigt (13IDE:m11.VAL)	 = 0.3488
; KB H mirror stripe (13IDE:m12.VAL)	 = -4.0000
; KB H mirror up height (13IDE:m13.VAL)	 = -0.3487
; KB H mirror dn force (13IDE:m14.VAL)	 = 5.8000
; KB H mirror up force (13IDE:m15.VAL)	 = 4.7000
; KB H mirror dn height (13IDE:m16.VAL)	 = 0.3488
; Sample Stage Fine X (13XRM:m1.VAL)	 = 0.20000
; Sample Stage Fine Y (13XRM:m2.VAL)	 = 0.48000
; Sample Theta (13XRM:m3.VAL)	 = 180.0000
; Sample Stage Coarse Up/Downstream (13XRM:m4.VAL)	 = -10.4110
; Sample Stage Coarse In/Outboard (13XRM:m5.VAL)	 = 12.3300
; Sample Stage Coarse X (13XRM:pm2.VAL)	 = 91.0803
; Sample Stage Coarse Z (focus) (13XRM:pm1.VAL)	 = 49.0405
; Sample Stage Coarse Y (vert) (13XRM:m6.VAL)	 = 197.9800
; Vortex X (13IDE:m34.VAL)	 = 7000.0
; Vortex Y (13IDE:m4.VAL)	 = 0.850
; Vortex Z (13IDE:m19.VAL)	 = 4.5000
; Vortex dxp1 Peaking Time (13SDD1:dxp1:PeakingTime)	 = 1.000
; Vortex dxp2 Peaking Time (13SDD1:dxp2:PeakingTime)	 = 1.000
; Vortex dxp3 Peaking Time (13SDD1:dxp3:PeakingTime)	 = 1.000
; Vortex dxp4 Peaking Time (13SDD1:dxp4:PeakingTime)	 = 1.000
; Scan Regions: EXAFS scan with        3 regions
;   E0 =       17166.0
;       Start       Stop       Step       Npts       Time   Kspace?
;     -150.00    -20.000     5.0000     27.000     1.0000   0
;     -20.000     60.000    0.29963     268.00     3.0000   0
;      3.9684     8.0000   0.049773     82.000     3.0000   1
; scan began at time: Sat Dec 07 19:05:32 2013
;=====================================================
; scan ended at time: Sat Dec 07 19:30:57 2013
; n_points      =      375
; column labels:
; P1 = {Energy} --> 13IDE:En:Energy.VAL
; P2 = {Scaler Count Time} --> 13IDE:scaler1.TP
; P3 = {MCA Count Time} --> 13SDD1:PresetReal
; D1 = {TSCALER}  --> 13IDE:scaler1_calc1.VAL
; D2 = {I0}  --> 13IDE:scaler1_calc2.VAL
; D3 = {I1}  --> 13IDE:scaler1_calc3.VAL
; D4 = {U La1}  --> 13SDD1:mca1.R15
; D5 = {U La1}  --> 13SDD1:mca2.R15
; D6 = {U La1}  --> 13SDD1:mca3.R15
; D7 = {U La1}  --> 13SDD1:mca4.R15
; D8 = {13SDD1:dxp1:InputCountRate}  --> 13SDD1:dxp1:InputCountRate
; D9 = {13SDD1:dxp2:InputCountRate}  --> 13SDD1:dxp2:InputCountRate
; D10 = {13SDD1:dxp3:InputCountRate}  --> 13SDD1:dxp3:InputCountRate
; D11 = {13SDD1:dxp4:InputCountRate}  --> 13SDD1:dxp4:InputCountRate
; D12 = {13SDD1:dxp1:OutputCountRate}  --> 13SDD1:dxp1:OutputCountRate
; D13 = {13SDD1:dxp2:OutputCountRate}  --> 13SDD1:dxp2:OutputCountRate
; D14 = {13SDD1:dxp3:OutputCountRate}  --> 13SDD1:dxp3:OutputCountRate
; D15 = {13SDD1:dxp4:OutputCountRate}  --> 13SDD1:dxp4:OutputCountRate
;--------------------------------------------
;  P1 P2 P3 D1 D2 D3 D4 D5 D6 D7 D8 D9 D10 D11 D12 D13 D14 D15
       17015.98       1.000000       1.000000  5.000000e+007       24141.00       42540.00       1367.000      0.0000000       2622.000       1410.000       297071.8      0.0000000       527768.7       303468.1       137037.8      0.0000000       145853.1       138062.8 
       17020.96       1.000000       1.000000  5.000000e+007       25891.00       45660.00       1407.000      0.0000000       2744.000       1509.000       315998.1      0.0000000       566974.3       321594.4       138457.6      0.0000000       140927.3       139816.3 
       17026.05       1.000000       1.000000  5.000000e+007       26037.00       46012.00       1447.000      0.0000000       2640.000       1591.000       318796.5      0.0000000       569312.6       324080.3       138722.5      0.0000000       141036.6       139947.9 
       17031.02       1.000000       1.000000  5.000000e+007       25847.00       45749.00       1405.000      0.0000000       2658.000       1486.000       314233.1      0.0000000       563867.7       321142.3       138026.8      0.0000000       141079.1       139569.8 
       17036.00       1.000000       1.000000  5.000000e+007       25577.00       45301.00       1392.000      0.0000000       2629.000       1544.000       311117.1      0.0000000       559072.1       318972.5       137551.6      0.0000000       142481.8       139979.2 
       17041.01       1.000000       1.000000  5.000000e+007       25719.00       45603.00       1505.000      0.0000000       2664.000       1549.000       312717.8      0.0000000       561891.4       320210.4       137606.3      0.0000000       142404.9       139346.8 
       17045.95       1.000000       1.000000  5.000000e+007       25659.00       45512.00       1450.000      0.0000000       2707.000       1578.000       310365.1      0.0000000       556952.4       316711.9       137755.2      0.0000000       142593.2       139301.9 
       17051.06       1.000000       1.000000  5.000000e+007       25636.00       45481.00       1545.000      0.0000000       2704.000       1567.000       309950.0      0.0000000       557644.0       316307.0       137755.6      0.0000000       142591.2       139108.4 
       17056.03       1.000000       1.000000  5.000000e+007       25635.00       45527.00       1444.000      0.0000000       2698.000       1532.000       310980.6      0.0000000       556866.3       316420.0       137399.4      0.0000000       142122.3       138825.6 
       17060.99       1.000000       1.000000  5.000000e+007       26233.00       46602.00       1470.000      0.0000000       2846.000       1599.000       316894.6      0.0000000       567063.1       323992.7       139350.2      0.0000000       143812.4       140642.7 
       17066.04       1.000000       1.000000  5.000000e+007       26122.00       46429.00       1423.000      0.0000000       2697.000       1569.000       315606.5      0.0000000       567291.6       323507.1       138334.5      0.0000000       142223.0       139353.5 
       17070.98       1.000000       1.000000  5.000000e+007       26070.00       46390.00       1418.000      0.0000000       2569.000       1586.000       315883.0      0.0000000       566129.1       322711.8       138034.3      0.0000000       142448.0       140194.7 
       17076.01       1.000000       1.000000  5.000000e+007       25855.00       46035.00       1372.000      0.0000000       2655.000       1537.000       312742.6      0.0000000       560916.8       318517.0       138285.5      0.0000000       141976.9       139144.7 
       17081.01       1.000000       1.000000  5.000000e+007       26318.00       46862.00       1520.000      0.0000000       2688.000       1626.000       317597.3      0.0000000       569513.0       324446.8       139723.0      0.0000000       143296.3       141081.0 
       17086.02       1.000000       1.000000  5.000000e+007       26359.00       46947.00       1494.000      0.0000000       2720.000       1622.000       317374.8      0.0000000       570993.3       324351.2       139823.0      0.0000000       143162.0       141550.1 
       17091.02       1.000000       1.000000  5.000000e+007       26325.00       46920.00       1438.000      0.0000000       2852.000       1589.000       316622.9      0.0000000       568654.9       322817.9       139698.6      0.0000000       142362.1       141487.3 
       17095.98       1.000000       1.000000  5.000000e+007       26189.00       46668.00       1382.000      0.0000000       2765.000       1590.000       315997.4      0.0000000       566040.0       320905.7       139782.2      0.0000000       143390.3       141567.0 
       17101.00       1.000000       1.000000  5.000000e+007       26432.00       47163.00       1460.000      0.0000000       2844.000       1579.000       317613.3      0.0000000       570139.6       322819.5       139924.1      0.0000000       142487.2       141169.3 
       17106.03       1.000000       1.000000  5.000000e+007       26180.00       46711.00       1438.000      0.0000000       2788.000       1535.000       312679.5      0.0000000       562066.2       319997.7       139329.4      0.0000000       144112.2       140368.5 
       17111.06       1.000000       1.000000  5.000000e+007       26034.00       46515.00       1403.000      0.0000000       2725.000       1551.000       311802.5      0.0000000       558094.0       317723.6       137317.3      0.0000000       142943.1       139694.7 
       17115.96       1.000000       1.000000  5.000000e+007       25814.00       46159.00       1419.000      0.0000000       2641.000       1514.000       307900.8      0.0000000       551993.3       315003.1       137565.4      0.0000000       143656.5       140101.7 
       17121.01       1.000000       1.000000  5.000000e+007       26259.00       47050.00       1422.000      0.0000000       2756.000       1621.000       314303.3      0.0000000       560818.9       320619.0       139136.7      0.0000000       142960.1       141620.7 
       17126.01       1.000000       1.000000  5.000000e+007       26265.00       47088.00       1446.000      0.0000000       2569.000       1562.000       313280.4      0.0000000       561654.3       320690.2       137401.6      0.0000000       142263.4       140019.2 
       17130.94       1.000000       1.000000  5.000000e+007       26261.00       47092.00       1433.000      0.0000000       2620.000       1523.000       312715.8      0.0000000       563082.6       318696.0       138076.8      0.0000000       141807.0       138969.7 
       17135.96       1.000000       1.000000  5.000000e+007       26170.00       47033.00       1393.000      0.0000000       2624.000       1576.000       311175.7      0.0000000       558896.2       320589.1       137466.3      0.0000000       142886.1       139754.5 
       17141.07       1.000000       1.000000  5.000000e+007       26439.00       47529.00       1361.000      0.0000000       2618.000       1543.000       315684.2      0.0000000       564073.8       321579.8       138112.5      0.0000000       142007.8       139841.6 
       17146.00       3.000000       3.000000  1.500000e+008       79365.00       142797.0       4190.000      0.0000000       8032.000       4659.000       314800.5      0.0000000       563291.6       321605.2       138722.1      0.0000000       142782.9       140503.3 
       17146.33       3.000000       3.000000  1.500000e+008       79661.00       143307.0       4391.000      0.0000000       8056.000       4715.000       315216.4      0.0000000       565648.8       322257.8       139164.1      0.0000000       142738.2       140857.0 
       17146.63       3.000000       3.000000  1.500000e+008       79460.00       143006.0       4241.000      0.0000000       8130.000       4720.000       315111.7      0.0000000       565246.6       321920.9       139330.0      0.0000000       142582.6       140947.4 
       17146.86       3.000000       3.000000  1.500000e+008       79467.00       142979.0       4349.000      0.0000000       8143.000       4648.000       315777.2      0.0000000       565122.6       322115.7       139252.3      0.0000000       142977.1       140831.3 
       17147.22       3.000000       3.000000  1.500000e+008       79602.00       143280.0       4309.000      0.0000000       8349.000       4776.000       317253.9      0.0000000       567090.0       323776.7       139422.1      0.0000000       142860.9       140794.5 
       17147.49       3.000000       3.000000  1.500000e+008       79726.00       143433.0       4345.000      0.0000000       8167.000       4728.000       317360.8      0.0000000       568460.9       323957.7       139535.0      0.0000000       142839.2       141130.0 
       17147.79       3.000000       3.000000  1.500000e+008       79593.00       143209.0       4446.000      0.0000000       8266.000       4774.000       316023.1      0.0000000       566808.0       323376.6       138984.1      0.0000000       142522.5       141040.0 
       17148.10       3.000000       3.000000  1.500000e+008       79565.00       143179.0       4322.000      0.0000000       8290.000       4711.000       316239.4      0.0000000       566152.1       323126.3       139034.0      0.0000000       142139.5       140478.2 
       17148.38       3.000000       3.000000  1.500000e+008       79548.00       143147.0       4371.000      0.0000000       8057.000       4588.000       315745.1      0.0000000       566145.1       323130.7       138773.6      0.0000000       142285.3       140776.3 
       17148.69       3.000000       3.000000  1.500000e+008       79580.00       143244.0       4424.000      0.0000000       8101.000       4697.000       316412.1      0.0000000       566402.0       322614.7       138855.1      0.0000000       142759.7       140660.6 
       17149.03       3.000000       3.000000  1.500000e+008       79396.00       142915.0       4293.000      0.0000000       8302.000       4576.000       315435.4      0.0000000       564872.6       321814.0       138780.2      0.0000000       143002.7       140588.5 
       17149.32       3.000000       3.000000  1.500000e+008       79436.00       142934.0       4352.000      0.0000000       8148.000       4770.000       316195.3      0.0000000       565524.0       322480.6       138948.3      0.0000000       142769.5       140652.4 
       17149.64       3.000000       3.000000  1.500000e+008       79337.00       142789.0       4296.000      0.0000000       8061.000       4744.000       315684.3      0.0000000       565704.1       322475.0       139063.8      0.0000000       142924.5       140997.6 
       17149.93       3.000000       3.000000  1.500000e+008       79533.00       143160.0       4367.000      0.0000000       8234.000       4704.000       318083.7      0.0000000       567801.4       323847.2       138857.1      0.0000000       142297.3       140592.1 
       17150.21       3.000000       3.000000  1.500000e+008       79469.00       143075.0       4380.000      0.0000000       8104.000       4723.000       317357.1      0.0000000       567237.8       322992.4       139042.4      0.0000000       142461.9       140871.6 
       17150.56       3.000000       3.000000  1.500000e+008       79498.00       143132.0       4278.000      0.0000000       8245.000       4622.000       316803.9      0.0000000       567008.8       322979.1       139124.4      0.0000000       142609.5       140984.6 
       17150.78       3.000000       3.000000  1.500000e+008       79633.00       143356.0       4345.000      0.0000000       8171.000       4828.000       316848.1      0.0000000       567576.8       322756.0       139342.5      0.0000000       142450.2       141002.8 
       17151.09       3.000000       3.000000  1.500000e+008       79676.00       143401.0       4371.000      0.0000000       8116.000       4695.000       316533.5      0.0000000       567022.9       323251.2       139216.8      0.0000000       142888.2       140980.1 
       17151.43       3.000000       3.000000  1.500000e+008       79404.00       142997.0       4285.000      0.0000000       8260.000       4629.000       315890.7      0.0000000       565531.3       321808.2       139150.1      0.0000000       143417.2       140465.1 
       17151.72       3.000000       3.000000  1.500000e+008       79499.00       143151.0       4355.000      0.0000000       8199.000       4710.000       316241.5      0.0000000       564863.8       321593.8       139074.3      0.0000000       142800.0       140520.1 
       17151.96       3.000000       3.000000  1.500000e+008       79323.00       142832.0       4348.000      0.0000000       8349.000       4664.000       314125.1      0.0000000       563432.4       321100.8       138843.2      0.0000000       142845.3       140604.0 
       17152.29       3.000000       3.000000  1.500000e+008       79301.00       142787.0       4212.000      0.0000000       8113.000       4694.000       315123.8      0.0000000       564920.2       321205.8       139021.0      0.0000000       142675.5       140762.8 
       17152.63       3.000000       3.000000  1.500000e+008       79279.00       142778.0       4239.000      0.0000000       8191.000       4640.000       314972.1      0.0000000       564426.9       321650.9       139265.3      0.0000000       143067.4       140889.1 
       17152.88       3.000000       3.000000  1.500000e+008       79274.00       142763.0       4358.000      0.0000000       8108.000       4668.000       315563.4      0.0000000       563564.2       321120.6       138962.0      0.0000000       142919.5       140831.9 
       17153.18       3.000000       3.000000  1.500000e+008       79015.00       142282.0       4399.000      0.0000000       8140.000       4607.000       313699.5      0.0000000       561682.3       320392.9       138805.8      0.0000000       143215.1       140217.7 
       17153.55       3.000000       3.000000  1.500000e+008       79287.00       142735.0       4213.000      0.0000000       8124.000       4673.000       314327.9      0.0000000       563374.7       320455.6       138626.0      0.0000000       143046.7       140812.1 
       17153.77       3.000000       3.000000  1.500000e+008       79339.00       142859.0       4360.000      0.0000000       8007.000       4563.000       314242.9      0.0000000       562265.1       320864.1       139104.6      0.0000000       142739.7       140757.5 
       17154.10       3.000000       3.000000  1.500000e+008       79176.00       142546.0       4268.000      0.0000000       8173.000       4578.000       313706.3      0.0000000       561670.9       320103.1       138767.1      0.0000000       143454.9       141020.7 
       17154.42       3.000000       3.000000  1.500000e+008       79093.00       142443.0       4282.000      0.0000000       8109.000       4645.000       313554.2      0.0000000       561687.4       320187.0       138685.4      0.0000000       143108.8       140262.8 
       17154.71       3.000000       3.000000  1.500000e+008       79175.00       142562.0       4390.000      0.0000000       8121.000       4648.000       313870.8      0.0000000       562253.4       320451.3       138975.7      0.0000000       142844.2       140598.3 
       17155.01       3.000000       3.000000  1.500000e+008       79183.00       142600.0       4408.000      0.0000000       8252.000       4722.000       314525.4      0.0000000       562434.3       320869.3       139107.2      0.0000000       142794.3       140480.3 
       17155.30       3.000000       3.000000  1.500000e+008       79226.00       142567.0       4279.000      0.0000000       8222.000       4531.000       315513.9      0.0000000       565908.4       323023.3       138944.8      0.0000000       142505.5       140825.4 
       17155.58       3.000000       3.000000  1.500000e+008       79480.00       143084.0       4242.000      0.0000000       8191.000       4639.000       317268.9      0.0000000       567948.3       324054.0       139132.4      0.0000000       142466.3       140795.2 
       17155.91       3.000000       3.000000  1.500000e+008       79346.00       142832.0       4246.000      0.0000000       8157.000       4626.000       316537.9      0.0000000       567376.8       323139.6       138947.6      0.0000000       142227.3       140686.0 
       17156.23       3.000000       3.000000  1.500000e+008       79121.00       142458.0       4247.000      0.0000000       8385.000       4621.000       316528.3      0.0000000       567132.9       322285.5       139069.0      0.0000000       142518.2       140951.1 
       17156.46       3.000000       3.000000  1.500000e+008       79320.00       142801.0       4399.000      0.0000000       8144.000       4762.000       317662.1      0.0000000       569619.2       324490.6       139299.0      0.0000000       142736.1       140892.3 
       17156.80       3.000000       3.000000  1.500000e+008       79334.00       142804.0       4128.000      0.0000000       8022.000       4681.000       318342.3      0.0000000       570065.7       324720.5       139354.4      0.0000000       142074.7       141291.0 
       17157.07       3.000000       3.000000  1.500000e+008       79310.00       142797.0       4488.000      0.0000000       8136.000       4724.000       316852.1      0.0000000       568722.4       324160.9       138967.8      0.0000000       142610.8       140729.9 
       17157.37       3.000000       3.000000  1.500000e+008       79245.00       142693.0       4262.000      0.0000000       8139.000       4749.000       317106.9      0.0000000       567768.9       324003.5       139282.3      0.0000000       142083.5       140697.3 
       17157.66       3.000000       3.000000  1.500000e+008       79100.00       142440.0       4261.000      0.0000000       8136.000       4677.000       316534.5      0.0000000       566999.8       323006.5       138703.1      0.0000000       142223.8       140769.8 
       17157.96       3.000000       3.000000  1.500000e+008       79057.00       142386.0       4404.000      0.0000000       8277.000       4629.000       315845.5      0.0000000       566059.7       322553.5       138835.0      0.0000000       142818.4       140534.5 
       17158.27       3.000000       3.000000  1.500000e+008       79259.00       142748.0       4222.000      0.0000000       8204.000       4645.000       316255.4      0.0000000       566811.4       322738.3       138895.0      0.0000000       142750.7       140857.9 
       17158.61       3.000000       3.000000  1.500000e+008       79307.00       142845.0       4456.000      0.0000000       8273.000       4761.000       315982.8      0.0000000       566808.4       322875.7       139203.0      0.0000000       142675.8       141105.7 
       17158.87       3.000000       3.000000  1.500000e+008       78990.00       142308.0       4449.000      0.0000000       8156.000       4709.000       315246.5      0.0000000       565531.8       321635.2       139002.4      0.0000000       142439.0       140452.6 
       17159.14       3.000000       3.000000  1.500000e+008       79233.00       142697.0       4310.000      0.0000000       8030.000       4699.000       316089.8      0.0000000       566355.0       322841.9       138758.9      0.0000000       141955.4       141030.9 
       17159.51       3.000000       3.000000  1.500000e+008       79143.00       142505.0       4273.000      0.0000000       8158.000       4670.000       315733.7      0.0000000       565375.4       322538.6       139050.3      0.0000000       142798.7       140531.5 
       17159.79       3.000000       3.000000  1.500000e+008       79830.00       143875.0       4455.000      0.0000000       8114.000       4807.000       318940.6      0.0000000       572245.9       325946.7       139247.0      0.0000000       142016.0       141027.7 
       17160.05       3.000000       3.000000  1.500000e+008       79774.00       143761.0       4340.000      0.0000000       8308.000       4733.000       318992.2      0.0000000       571398.9       325519.8       139114.7      0.0000000       142005.4       141105.7 
       17160.44       3.000000       3.000000  1.500000e+008       79856.00       143870.0       4385.000      0.0000000       8406.000       4686.000       319687.7      0.0000000       572757.1       325324.4       139561.2      0.0000000       141913.4       140436.9 
       17160.66       3.000000       3.000000  1.500000e+008       79824.00       143828.0       4569.000      0.0000000       8212.000       4704.000       318746.1      0.0000000       571334.4       325839.2       139200.0      0.0000000       142549.1       141014.3 
       17161.01       3.000000       3.000000  1.500000e+008       79805.00       143767.0       4444.000      0.0000000       8191.000       4652.000       319416.9      0.0000000       572281.1       326337.8       139531.0      0.0000000       142404.8       140977.8 
       17161.33       3.000000       3.000000  1.500000e+008       79830.00       143877.0       4461.000      0.0000000       8085.000       4803.000       319870.6      0.0000000       573257.1       326537.1       139403.6      0.0000000       142393.9       140889.1 
       17161.54       3.000000       3.000000  1.500000e+008       79907.00       143983.0       4440.000      0.0000000       8315.000       4739.000       320375.9      0.0000000       573068.6       326336.6       139788.6      0.0000000       142270.1       141272.3 
       17161.84       3.000000       3.000000  1.500000e+008       79803.00       143853.0       4294.000      0.0000000       8302.000       4697.000       319691.4      0.0000000       572998.1       327002.2       139474.9      0.0000000       142137.6       140796.9 
       17162.15       3.000000       3.000000  1.500000e+008       79719.00       143662.0       4359.000      0.0000000       8130.000       4737.000       318820.3      0.0000000       572716.4       326157.4       139430.0      0.0000000       142364.0       141280.8 
       17162.53       3.000000       3.000000  1.500000e+008       79781.00       143787.0       4527.000      0.0000000       8116.000       4866.000       319119.0      0.0000000       571506.4       326208.3       139478.0      0.0000000       142134.8       141342.8 
       17162.82       3.000000       3.000000  1.500000e+008       79696.00       143655.0       4463.000      0.0000000       8103.000       4730.000       318877.7      0.0000000       571044.8       325006.7       139264.0      0.0000000       142181.1       141349.4 
       17163.06       3.000000       3.000000  1.500000e+008       79914.00       143979.0       4408.000      0.0000000       8243.000       4623.000       319743.1      0.0000000       573085.9       326292.8       139338.9      0.0000000       141989.3       141192.5 
       17163.38       3.000000       3.000000  1.500000e+008       79871.00       143884.0       4442.000      0.0000000       8112.000       4735.000       319341.4      0.0000000       573531.5       327053.3       139655.2      0.0000000       142039.0       141216.9 
       17163.63       3.000000       3.000000  1.500000e+008       79717.00       143746.0       4411.000      0.0000000       8300.000       4669.000       318448.4      0.0000000       572134.5       325360.5       139649.0      0.0000000       142153.9       140921.4 
       17164.00       3.000000       3.000000  1.500000e+008       79721.00       143680.0       4356.000      0.0000000       8066.000       4651.000       318588.8      0.0000000       570293.6       325902.5       139195.2      0.0000000       142346.1       140930.3 
       17164.26       3.000000       3.000000  1.500000e+008       79823.00       143847.0       4384.000      0.0000000       8196.000       4858.000       319039.3      0.0000000       572371.9       326701.0       139279.2      0.0000000       142298.9       141224.5 
       17164.60       3.000000       3.000000  1.500000e+008       79866.00       143891.0       4297.000      0.0000000       8202.000       4613.000       318327.9      0.0000000       570172.3       325392.4       139442.4      0.0000000       142574.6       141046.4 
       17164.87       3.000000       3.000000  1.500000e+008       79801.00       143823.0       4452.000      0.0000000       8160.000       4647.000       318373.1      0.0000000       570359.4       325684.9       139156.3      0.0000000       142647.5       141531.3 
       17165.13       3.000000       3.000000  1.500000e+008       79778.00       143772.0       4386.000      0.0000000       8353.000       4816.000       318622.9      0.0000000       570826.3       325604.0       139163.7      0.0000000       142036.9       140955.5 
       17165.48       3.000000       3.000000  1.500000e+008       79834.00       143864.0       4515.000      0.0000000       8100.000       4600.000       317212.9      0.0000000       568924.1       324591.3       139153.3      0.0000000       142504.9       141183.0 
       17165.76       3.000000       3.000000  1.500000e+008       79711.00       143647.0       4344.000      0.0000000       8056.000       4783.000       317242.2      0.0000000       568936.8       324395.4       139333.5      0.0000000       142389.5       140797.2 
       17166.17       3.000000       3.000000  1.500000e+008       79872.00       143910.0       4399.000      0.0000000       8345.000       4617.000       317507.4      0.0000000       569995.2       324837.8       139178.2      0.0000000       142685.6       141061.6 
       17166.41       3.000000       3.000000  1.500000e+008       79725.00       143673.0       4426.000      0.0000000       8143.000       4715.000       317704.7      0.0000000       568286.9       323889.2       139494.6      0.0000000       142486.9       140894.5 
       17166.68       3.000000       3.000000  1.500000e+008       79558.00       143403.0       4336.000      0.0000000       8074.000       4743.000       316544.7      0.0000000       567721.8       323470.6       139371.8      0.0000000       142710.4       140942.0 
       17166.98       3.000000       3.000000  1.500000e+008       79576.00       143431.0       4236.000      0.0000000       8205.000       4570.000       315685.1      0.0000000       566098.0       323329.0       139028.7      0.0000000       142833.1       140744.3 
       17167.28       3.000000       3.000000  1.500000e+008       79531.00       143367.0       4461.000      0.0000000       8167.000       4712.000       315871.9      0.0000000       566033.3       322784.4       139477.8      0.0000000       142878.8       140726.2 
       17167.63       3.000000       3.000000  1.500000e+008       79573.00       143449.0       4337.000      0.0000000       8145.000       4589.000       315809.3      0.0000000       567588.9       323599.4       139073.2      0.0000000       142640.0       140585.6 
       17167.91       3.000000       3.000000  1.500000e+008       79714.00       143707.0       4479.000      0.0000000       8338.000       4727.000       317306.8      0.0000000       568643.8       324717.3       139439.6      0.0000000       142533.1       140875.2 
       17168.16       3.000000       3.000000  1.500000e+008       79487.00       143221.0       4287.000      0.0000000       8074.000       4720.000       315647.2      0.0000000       566504.4       323006.1       138758.8      0.0000000       142690.5       140861.0 
       17168.48       3.000000       3.000000  1.500000e+008       79603.00       143446.0       4418.000      0.0000000       8078.000       4817.000       317068.1      0.0000000       569057.4       323218.1       139269.0      0.0000000       142626.0       140995.3 
       17168.75       3.000000       3.000000  1.500000e+008       79517.00       143288.0       4365.000      0.0000000       8221.000       4559.000       316312.0      0.0000000       566691.8       323151.8       139094.2      0.0000000       142716.6       141056.8 
       17169.07       3.000000       3.000000  1.500000e+008       79564.00       143353.0       4416.000      0.0000000       8103.000       4625.000       315937.0      0.0000000       566042.1       322585.1       139055.9      0.0000000       142819.0       141069.8 
       17169.38       3.000000       3.000000  1.500000e+008       79607.00       143450.0       4364.000      0.0000000       8086.000       4648.000       316629.1      0.0000000       567158.8       323970.3       139321.1      0.0000000       142593.1       140998.2 
       17169.66       3.000000       3.000000  1.500000e+008       79493.00       143255.0       4265.000      0.0000000       8151.000       4687.000       315473.2      0.0000000       565409.0       322154.8       139317.8      0.0000000       143144.7       140981.1 
       17169.96       3.000000       3.000000  1.500000e+008       79294.00       142932.0       4472.000      0.0000000       8119.000       4751.000       314649.0      0.0000000       564422.1       320982.3       139561.7      0.0000000       142829.9       141084.2 
       17170.25       3.000000       3.000000  1.500000e+008       79335.00       143038.0       4276.000      0.0000000       8023.000       4674.000       315243.9      0.0000000       565436.3       321867.4       138925.6      0.0000000       142916.3       140593.5 
       17170.53       3.000000       3.000000  1.500000e+008       79537.00       143318.0       4232.000      0.0000000       8068.000       4652.000       315900.3      0.0000000       566819.4       323025.2       138970.2      0.0000000       142515.1       140893.4 
       17170.88       3.000000       3.000000  1.500000e+008       79297.00       142913.0       4493.000      0.0000000       8338.000       4669.000       315061.2      0.0000000       564180.8       320672.2       138769.1      0.0000000       142772.8       140455.9 
       17171.20       3.000000       3.000000  1.500000e+008       79370.00       143063.0       4503.000      0.0000000       8289.000       4468.000       315659.3      0.0000000       564524.3       321463.9       138994.7      0.0000000       142955.8       140676.1 
       17171.49       3.000000       3.000000  1.500000e+008       79376.00       143153.0       4486.000      0.0000000       8024.000       4608.000       314500.3      0.0000000       564714.8       321764.1       138770.6      0.0000000       142865.3       140495.6 
       17171.77       3.000000       3.000000  1.500000e+008       79243.00       142803.0       4390.000      0.0000000       8089.000       4741.000       313530.0      0.0000000       561550.9       320407.5       138728.1      0.0000000       143036.2       140098.4 
       17172.04       3.000000       3.000000  1.500000e+008       79230.00       142805.0       4455.000      0.0000000       8214.000       4562.000       314257.8      0.0000000       563623.0       320434.6       138838.9      0.0000000       142833.4       140489.5 
       17172.34       3.000000       3.000000  1.500000e+008       79347.00       143041.0       4392.000      0.0000000       8141.000       4676.000       313951.3      0.0000000       563079.1       320791.9       138934.4      0.0000000       142685.0       140625.1 
       17172.70       3.000000       3.000000  1.500000e+008       79166.00       142667.0       4305.000      0.0000000       8291.000       4546.000       313665.4      0.0000000       562294.8       320120.0       139053.5      0.0000000       143159.7       140330.1 
       17172.95       3.000000       3.000000  1.500000e+008       78968.00       142397.0       4378.000      0.0000000       8189.000       4632.000       312288.2      0.0000000       559640.6       319892.8       138730.7      0.0000000       143305.7       140585.6 
       17173.31       3.000000       3.000000  1.500000e+008       79223.00       142757.0       4287.000      0.0000000       8140.000       4588.000       314054.5      0.0000000       561623.3       319971.2       139186.8      0.0000000       143309.0       140522.6 
       17173.56       3.000000       3.000000  1.500000e+008       79188.00       142752.0       4341.000      0.0000000       8044.000       4656.000       313508.5      0.0000000       561579.3       320021.1       138693.6      0.0000000       143224.2       140524.8 
       17173.86       3.000000       3.000000  1.500000e+008       79124.00       142615.0       4365.000      0.0000000       8044.000       4615.000       313097.9      0.0000000       561664.6       319856.3       138847.4      0.0000000       143061.1       140397.4 
       17174.14       3.000000       3.000000  1.500000e+008       79109.00       142627.0       4276.000      0.0000000       8163.000       4811.000       312490.2      0.0000000       560545.8       320049.7       139030.4      0.0000000       143382.5       140442.2 
       17174.49       3.000000       3.000000  1.500000e+008       79276.00       142894.0       4415.000      0.0000000       8151.000       4636.000       312817.8      0.0000000       562374.4       320567.8       138903.4      0.0000000       143049.3       140515.6 
       17174.75       3.000000       3.000000  1.500000e+008       79179.00       142665.0       4302.000      0.0000000       8168.000       4637.000       313416.8      0.0000000       561249.6       319248.9       139189.7      0.0000000       142774.3       140376.9 
       17175.06       3.000000       3.000000  1.500000e+008       79238.00       142768.0       4261.000      0.0000000       8040.000       4653.000       313169.0      0.0000000       561755.8       320746.8       139150.2      0.0000000       143655.6       140570.1 
       17175.34       3.000000       3.000000  1.500000e+008       79174.00       142686.0       4394.000      0.0000000       8155.000       4677.000       313651.9      0.0000000       562444.3       320699.4       138667.0      0.0000000       143109.5       140820.4 
       17175.67       3.000000       3.000000  1.500000e+008       79108.00       142577.0       4346.000      0.0000000       8134.000       4700.000       312733.8      0.0000000       560759.4       319399.2       138945.9      0.0000000       143166.8       140627.5 
       17175.95       3.000000       3.000000  1.500000e+008       79210.00       142803.0       4260.000      0.0000000       8164.000       4675.000       313647.3      0.0000000       563291.2       321587.2       138913.2      0.0000000       142758.2       141006.4 
       17176.27       3.000000       3.000000  1.500000e+008       79274.00       142861.0       4435.000      0.0000000       8075.000       4603.000       313661.2      0.0000000       562209.6       320968.9       138796.3      0.0000000       142910.2       140674.5 
       17176.56       3.000000       3.000000  1.500000e+008       79506.00       143278.0       4354.000      0.0000000       8062.000       4697.000       314831.4      0.0000000       563276.7       321643.1       139292.2      0.0000000       143051.3       140481.6 
       17176.86       3.000000       3.000000  1.500000e+008       78298.00       141061.0       4239.000      0.0000000       8293.000       4625.000       309222.5      0.0000000       553465.1       315688.1       138189.3      0.0000000       143531.8       139695.5 
       17177.17       3.000000       3.000000  1.500000e+008       78402.00       141381.0       4240.000      0.0000000       8282.000       4570.000       309583.8      0.0000000       554275.4       316231.6       138076.3      0.0000000       143162.3       139624.0 
       17177.49       3.000000       3.000000  1.500000e+008       79101.00       142655.0       4213.000      0.0000000       8024.000       4642.000       312244.3      0.0000000       559151.6       318270.8       138141.7      0.0000000       143445.1       140232.8 
       17177.75       3.000000       3.000000  1.500000e+008       78915.00       142253.0       4239.000      0.0000000       8066.000       4654.000       310700.5      0.0000000       556618.1       317701.3       138242.2      0.0000000       143237.1       139981.0 
       17178.04       3.000000       3.000000  1.500000e+008       79116.00       142611.0       4312.000      0.0000000       8141.000       4665.000       312785.6      0.0000000       559352.6       318999.7       138380.9      0.0000000       142972.0       139907.3 
       17178.36       3.000000       3.000000  1.500000e+008       78873.00       142211.0       4218.000      0.0000000       8286.000       4655.000       311454.0      0.0000000       556704.6       317701.4       138422.6      0.0000000       143089.3       139805.1 
       17178.65       3.000000       3.000000  1.500000e+008       79543.00       143369.0       4289.000      0.0000000       8120.000       4576.000       314068.6      0.0000000       562157.6       321256.5       138536.9      0.0000000       141819.9       139758.9 
       17178.95       3.000000       3.000000  1.500000e+008       79630.00       143631.0       4304.000      0.0000000       8179.000       4645.000       315069.0      0.0000000       563816.7       321344.5       138271.0      0.0000000       141141.8       139672.5 
       17179.27       3.000000       3.000000  1.500000e+008       79795.00       143858.0       4329.000      0.0000000       8134.000       4635.000       315677.0      0.0000000       563274.7       321302.5       138398.0      0.0000000       141634.2       139859.3 
       17179.58       3.000000       3.000000  1.500000e+008       79780.00       143820.0       4268.000      0.0000000       8020.000       4511.000       315705.5      0.0000000       563666.6       321580.5       138113.9      0.0000000       141017.8       139678.2 
       17179.86       3.000000       3.000000  1.500000e+008       79755.00       143849.0       4337.000      0.0000000       8019.000       4551.000       314989.9      0.0000000       563542.3       322334.3       138162.6      0.0000000       141489.4       139791.6 
       17180.17       3.000000       3.000000  1.500000e+008       79644.00       143603.0       4269.000      0.0000000       8015.000       4616.000       314671.8      0.0000000       563158.0       321821.0       138408.9      0.0000000       142078.0       140348.6 
       17180.45       3.000000       3.000000  1.500000e+008       79579.00       143624.0       4321.000      0.0000000       8077.000       4752.000       315365.3      0.0000000       563371.1       321699.7       138713.7      0.0000000       142496.7       140447.8 
       17180.77       3.000000       3.000000  1.500000e+008       79483.00       143363.0       4264.000      0.0000000       8133.000       4797.000       313933.8      0.0000000       562880.1       321167.6       138609.3      0.0000000       142792.6       140636.1 
       17181.08       3.000000       3.000000  1.500000e+008       79497.00       143338.0       4295.000      0.0000000       8362.000       4550.000       313842.6      0.0000000       562267.8       321135.4       138679.3      0.0000000       143080.4       140819.8 
       17181.36       3.000000       3.000000  1.500000e+008       79309.00       142995.0       4204.000      0.0000000       8157.000       4777.000       313433.6      0.0000000       561154.6       320540.7       138875.6      0.0000000       143019.6       140617.8 
       17181.63       3.000000       3.000000  1.500000e+008       79551.00       143541.0       4376.000      0.0000000       8193.000       4739.000       314657.3      0.0000000       562239.7       321321.4       138962.7      0.0000000       143267.3       140559.8 
       17181.97       3.000000       3.000000  1.500000e+008       79690.00       143714.0       4311.000      0.0000000       8103.000       4676.000       314350.1      0.0000000       562615.2       322025.7       138713.0      0.0000000       142961.3       140412.2 
       17182.30       3.000000       3.000000  1.500000e+008       79574.00       143476.0       4338.000      0.0000000       8164.000       4558.000       314931.5      0.0000000       561704.8       321177.1       139108.9      0.0000000       143262.9       140806.4 
       17182.54       3.000000       3.000000  1.500000e+008       79669.00       143645.0       4362.000      0.0000000       8288.000       4628.000       314474.0      0.0000000       562522.6       321316.4       139420.5      0.0000000       143587.3       140766.1 
       17182.86       3.000000       3.000000  1.500000e+008       79587.00       143495.0       4262.000      0.0000000       8034.000       4675.000       314005.3      0.0000000       561319.9       320581.6       138814.7      0.0000000       143689.6       140859.0 
       17183.15       3.000000       3.000000  1.500000e+008       79462.00       143318.0       4293.000      0.0000000       8150.000       4657.000       313362.3      0.0000000       560186.9       319833.4       139257.2      0.0000000       143497.5       140414.3 
       17183.51       3.000000       3.000000  1.500000e+008       79407.00       143264.0       4359.000      0.0000000       8115.000       4628.000       312757.6      0.0000000       560015.5       319558.7       138860.7      0.0000000       143330.1       140343.8 
       17183.73       3.000000       3.000000  1.500000e+008       79478.00       143361.0       4263.000      0.0000000       8222.000       4535.000       313459.6      0.0000000       560721.0       320047.3       139144.7      0.0000000       143267.3       140252.8 
       17184.04       3.000000       3.000000  1.500000e+008       79296.00       143006.0       4324.000      0.0000000       8287.000       4632.000       312879.7      0.0000000       560562.9       319705.4       138937.5      0.0000000       143561.2       140637.5 
       17184.36       3.000000       3.000000  1.500000e+008       79285.00       142994.0       4349.000      0.0000000       8180.000       4636.000       313176.5      0.0000000       559853.4       320526.2       139070.9      0.0000000       143851.0       140914.1 
       17184.71       3.000000       3.000000  1.500000e+008       79563.00       143459.0       4350.000      0.0000000       8065.000       4599.000       313556.3      0.0000000       561821.0       320024.4       139106.8      0.0000000       143207.3       140310.6 
       17184.95       3.000000       3.000000  1.500000e+008       79398.00       143133.0       4308.000      0.0000000       8281.000       4620.000       312414.5      0.0000000       559892.8       319358.2       139173.5      0.0000000       143538.9       140716.5 
       17185.21       3.000000       3.000000  1.500000e+008       79356.00       143097.0       4332.000      0.0000000       8232.000       4756.000       312995.8      0.0000000       559705.6       318982.4       139040.0      0.0000000       143208.7       140539.4 
       17185.58       3.000000       3.000000  1.500000e+008       79228.00       142866.0       4242.000      0.0000000       8110.000       4607.000       312175.3      0.0000000       558618.1       318692.6       138970.8      0.0000000       143474.8       140171.6 
       17185.88       3.000000       3.000000  1.500000e+008       79218.00       142841.0       4323.000      0.0000000       8181.000       4663.000       311831.9      0.0000000       558447.9       318351.4       139139.1      0.0000000       143897.7       140560.4 
       17186.12       3.000000       3.000000  1.500000e+008       79434.00       143286.0       4413.000      0.0000000       8257.000       4659.000       312608.6      0.0000000       560871.4       320022.8       138958.8      0.0000000       143248.7       140799.0 
       17186.43       3.000000       3.000000  1.500000e+008       79514.00       143344.0       4230.000      0.0000000       8066.000       4609.000       312948.9      0.0000000       561500.6       319363.6       138671.7      0.0000000       143769.9       140881.4 
       17186.77       3.000000       3.000000  1.500000e+008       79357.00       143040.0       4367.000      0.0000000       8260.000       4596.000       311468.0      0.0000000       559355.4       318419.0       138826.6      0.0000000       143570.9       140274.8 
       17187.04       3.000000       3.000000  1.500000e+008       79453.00       143252.0       4243.000      0.0000000       8096.000       4527.000       312206.7      0.0000000       559107.4       319099.1       138750.0      0.0000000       144039.3       140528.6 
       17187.40       3.000000       3.000000  1.500000e+008       79356.00       143183.0       4288.000      0.0000000       8219.000       4654.000       311606.9      0.0000000       558000.9       318292.7       138594.3      0.0000000       143363.6       140604.8 
       17187.71       3.000000       3.000000  1.500000e+008       79214.00       142861.0       4252.000      0.0000000       8116.000       4603.000       311124.0      0.0000000       556299.1       317615.9       138729.2      0.0000000       143736.9       140603.2 
       17187.95       3.000000       3.000000  1.500000e+008       79235.00       142889.0       4336.000      0.0000000       8139.000       4594.000       311722.3      0.0000000       558336.4       317870.0       138738.9      0.0000000       143669.5       140326.1 
       17188.21       3.000000       3.000000  1.500000e+008       79168.00       142711.0       4197.000      0.0000000       8144.000       4557.000       310664.8      0.0000000       556410.6       317376.8       138478.1      0.0000000       143708.5       140683.3 
       17188.56       3.000000       3.000000  1.500000e+008       79012.00       142489.0       4275.000      0.0000000       8088.000       4545.000       310070.5      0.0000000       555278.3       317178.0       138650.2      0.0000000       144394.0       140049.8 
       17188.78       3.000000       3.000000  1.500000e+008       78966.00       142334.0       4334.000      0.0000000       8127.000       4624.000       309695.2      0.0000000       553642.1       316630.0       138410.0      0.0000000       144326.4       140578.2 
       17189.14       3.000000       3.000000  1.500000e+008       78904.00       142271.0       4276.000      0.0000000       8070.000       4609.000       308461.1      0.0000000       553331.2       316320.5       138229.0      0.0000000       143641.6       140526.7 
       17189.46       3.000000       3.000000  1.500000e+008       78777.00       142074.0       4360.000      0.0000000       8175.000       4512.000       308865.1      0.0000000       552804.4       316165.0       138383.7      0.0000000       144082.5       140150.7 
       17189.71       3.000000       3.000000  1.500000e+008       78839.00       142178.0       4249.000      0.0000000       8162.000       4597.000       308993.6      0.0000000       553872.1       315864.4       138314.2      0.0000000       143898.9       139993.8 
       17190.01       3.000000       3.000000  1.500000e+008       78885.00       142329.0       4266.000      0.0000000       8138.000       4600.000       308823.3      0.0000000       552915.0       316475.5       138635.4      0.0000000       144012.3       140428.1 
       17190.34       3.000000       3.000000  1.500000e+008       78839.00       142181.0       4155.000      0.0000000       8158.000       4749.000       308413.5      0.0000000       553168.6       316095.6       138411.6      0.0000000       143958.2       140363.5 
       17190.64       3.000000       3.000000  1.500000e+008       78883.00       142294.0       4383.000      0.0000000       8154.000       4605.000       309110.5      0.0000000       553338.4       315857.0       138647.3      0.0000000       144088.5       140441.9 
       17190.96       3.000000       3.000000  1.500000e+008       78892.00       142257.0       4229.000      0.0000000       7944.000       4595.000       309116.3      0.0000000       552003.8       314907.5       138462.2      0.0000000       144224.7       140317.1 
       17191.23       3.000000       3.000000  1.500000e+008       78843.00       142240.0       4082.000      0.0000000       8065.000       4557.000       308289.3      0.0000000       551906.7       314807.9       138160.5      0.0000000       143980.0       139880.3 
       17191.55       3.000000       3.000000  1.500000e+008       78946.00       142407.0       4223.000      0.0000000       7996.000       4549.000       309209.8      0.0000000       552264.7       315472.4       138168.6      0.0000000       144421.4       140186.6 
       17191.85       3.000000       3.000000  1.500000e+008       78921.00       142284.0       4279.000      0.0000000       8127.000       4634.000       308886.5      0.0000000       552843.6       315763.0       138951.8      0.0000000       144320.2       140319.8 
       17192.16       3.000000       3.000000  1.500000e+008       78929.00       142332.0       4298.000      0.0000000       7973.000       4571.000       309391.2      0.0000000       553429.3       315915.3       138351.0      0.0000000       144135.1       140178.1 
       17192.40       3.000000       3.000000  1.500000e+008       78749.00       142035.0       4271.000      0.0000000       8247.000       4634.000       308451.7      0.0000000       552439.9       315466.7       138589.7      0.0000000       144546.3       139794.9 
       17192.73       3.000000       3.000000  1.500000e+008       78688.00       141913.0       4262.000      0.0000000       8145.000       4649.000       307987.5      0.0000000       550554.1       314823.4       138480.8      0.0000000       144107.3       140377.8 
       17193.07       3.000000       3.000000  1.500000e+008       78705.00       141884.0       4211.000      0.0000000       8023.000       4406.000       307702.2      0.0000000       551147.5       314075.5       137817.1      0.0000000       144347.9       139853.2 
       17193.35       3.000000       3.000000  1.500000e+008       78467.00       141498.0       4310.000      0.0000000       8141.000       4575.000       308372.9      0.0000000       550716.3       314579.0       138682.9      0.0000000       143960.3       140197.2 
       17193.60       3.000000       3.000000  1.500000e+008       78419.00       141461.0       4294.000      0.0000000       7971.000       4587.000       307165.6      0.0000000       550943.4       313508.8       138454.2      0.0000000       144462.1       139867.0 
       17193.94       3.000000       3.000000  1.500000e+008       78504.00       141598.0       4211.000      0.0000000       8211.000       4478.000       307129.2      0.0000000       549583.3       313865.6       138342.3      0.0000000       144366.5       139933.6 
       17194.26       3.000000       3.000000  1.500000e+008       78424.00       141462.0       4250.000      0.0000000       7953.000       4499.000       306868.5      0.0000000       549120.0       313801.4       138203.2      0.0000000       144121.1       139841.9 
       17194.53       3.000000       3.000000  1.500000e+008       78453.00       141512.0       4273.000      0.0000000       8219.000       4587.000       306756.1      0.0000000       549593.7       313316.1       138417.9      0.0000000       144537.7       140081.1 
       17194.83       3.000000       3.000000  1.500000e+008       78445.00       141458.0       4188.000      0.0000000       8074.000       4558.000       306944.2      0.0000000       549764.1       312909.0       138045.4      0.0000000       144183.7       140109.7 
       17195.15       3.000000       3.000000  1.500000e+008       78382.00       141367.0       4173.000      0.0000000       8036.000       4495.000       306336.0      0.0000000       548679.5       312508.7       138472.6      0.0000000       144258.8       140035.7 
       17195.42       3.000000       3.000000  1.500000e+008       78556.00       141688.0       4269.000      0.0000000       8187.000       4584.000       306943.0      0.0000000       549648.3       314360.7       138400.1      0.0000000       144040.9       139918.3 
       17195.72       3.000000       3.000000  1.500000e+008       78382.00       141330.0       4145.000      0.0000000       8067.000       4556.000       305928.8      0.0000000       547678.1       312973.7       137917.8      0.0000000       144667.6       140176.0 
       17196.04       3.000000       3.000000  1.500000e+008       78322.00       141305.0       4213.000      0.0000000       8067.000       4505.000       305685.9      0.0000000       547643.4       312531.7       137910.9      0.0000000       144095.4       139767.1 
       17196.35       3.000000       3.000000  1.500000e+008       78351.00       141335.0       4259.000      0.0000000       8128.000       4479.000       306661.9      0.0000000       549067.4       313368.9       137938.8      0.0000000       144453.1       140289.4 
       17196.65       3.000000       3.000000  1.500000e+008       78179.00       141041.0       4125.000      0.0000000       7864.000       4480.000       306325.9      0.0000000       547406.6       312437.9       138256.1      0.0000000       144189.4       139865.2 
       17196.91       3.000000       3.000000  1.500000e+008       78387.00       141385.0       4215.000      0.0000000       8165.000       4464.000       306389.2      0.0000000       548624.4       313124.4       138596.1      0.0000000       144031.0       139989.1 
       17197.24       3.000000       3.000000  1.500000e+008       78360.00       141339.0       4224.000      0.0000000       8188.000       4549.000       306361.9      0.0000000       547829.4       312868.4       138298.6      0.0000000       144319.4       139718.6 
       17197.50       3.000000       3.000000  1.500000e+008       79359.00       143171.0       4270.000      0.0000000       8138.000       4609.000       311162.8      0.0000000       556903.7       318263.9       138273.2      0.0000000       142913.2       139926.0 
       17197.84       3.000000       3.000000  1.500000e+008       79397.00       143292.0       4237.000      0.0000000       8173.000       4642.000       311622.2      0.0000000       558443.0       317815.9       138583.8      0.0000000       143404.4       139909.8 
       17198.11       3.000000       3.000000  1.500000e+008       79480.00       143469.0       4245.000      0.0000000       8009.000       4701.000       312654.2      0.0000000       558936.4       319380.3       138227.7      0.0000000       142684.1       140083.3 
       17198.41       3.000000       3.000000  1.500000e+008       79300.00       143093.0       4409.000      0.0000000       8133.000       4710.000       311392.9      0.0000000       557969.6       318651.8       138551.8      0.0000000       143177.2       140184.6 
       17198.77       3.000000       3.000000  1.500000e+008       79211.00       142970.0       4346.000      0.0000000       8004.000       4673.000       311468.4      0.0000000       557137.6       318175.1       138473.1      0.0000000       143341.3       140289.8 
       17199.04       3.000000       3.000000  1.500000e+008       79087.00       142704.0       4378.000      0.0000000       8101.000       4608.000       310556.3      0.0000000       556076.8       316921.5       138680.3      0.0000000       143729.1       140567.8 
       17199.34       3.000000       3.000000  1.500000e+008       79288.00       143077.0       4252.000      0.0000000       8217.000       4721.000       312101.7      0.0000000       557815.3       318129.7       138488.8      0.0000000       143526.1       139908.3 
       17199.62       3.000000       3.000000  1.500000e+008       79016.00       142623.0       4226.000      0.0000000       8254.000       4687.000       310939.3      0.0000000       556876.6       317384.8       138822.2      0.0000000       143419.8       140180.7 
       17199.87       3.000000       3.000000  1.500000e+008       79128.00       142821.0       4266.000      0.0000000       8096.000       4591.000       311310.2      0.0000000       557227.4       317725.3       138868.2      0.0000000       143502.1       140154.4 
       17200.19       3.000000       3.000000  1.500000e+008       79112.00       142775.0       4305.000      0.0000000       8110.000       4747.000       311179.1      0.0000000       555795.8       317202.3       138759.6      0.0000000       143687.1       140699.3 
       17200.53       3.000000       3.000000  1.500000e+008       79058.00       142637.0       4359.000      0.0000000       8208.000       4580.000       310357.3      0.0000000       554725.2       316547.8       138481.8      0.0000000       144159.3       140223.0 
       17200.90       3.000000       3.000000  1.500000e+008       78922.00       142455.0       4252.000      0.0000000       8177.000       4600.000       310129.1      0.0000000       555278.8       316991.4       138680.5      0.0000000       143893.5       140484.7 
       17201.08       3.000000       3.000000  1.500000e+008       78968.00       142556.0       4275.000      0.0000000       8072.000       4514.000       310833.1      0.0000000       554704.5       316717.2       138789.5      0.0000000       144326.9       140526.7 
       17201.52       3.000000       3.000000  1.500000e+008       78980.00       142498.0       4352.000      0.0000000       7976.000       4611.000       309907.7      0.0000000       555119.4       316838.8       138409.1      0.0000000       143815.9       140187.2 
       17201.75       3.000000       3.000000  1.500000e+008       78838.00       142305.0       4261.000      0.0000000       8161.000       4621.000       310279.5      0.0000000       555744.3       316769.6       138860.2      0.0000000       144288.2       140110.8 
       17202.01       3.000000       3.000000  1.500000e+008       78838.00       142333.0       4243.000      0.0000000       8222.000       4637.000       309876.4      0.0000000       555014.1       315685.3       138866.1      0.0000000       144314.9       140257.1 
       17202.33       3.000000       3.000000  1.500000e+008       78785.00       142175.0       4179.000      0.0000000       8026.000       4611.000       309069.8      0.0000000       553323.4       315480.1       138420.0      0.0000000       144177.0       140165.0 
       17202.66       3.000000       3.000000  1.500000e+008       78611.00       141926.0       4332.000      0.0000000       8029.000       4611.000       308954.3      0.0000000       552077.1       315186.5       138707.9      0.0000000       144177.2       140411.4 
       17202.96       3.000000       3.000000  1.500000e+008       78515.00       141696.0       4265.000      0.0000000       8097.000       4692.000       308402.7      0.0000000       550935.3       313937.3       138399.6      0.0000000       144118.3       140220.3 
       17203.26       3.000000       3.000000  1.500000e+008       78677.00       142002.0       4274.000      0.0000000       8315.000       4525.000       307955.0      0.0000000       552560.8       314969.8       138461.0      0.0000000       144132.5       140457.6 
       17203.53       3.000000       3.000000  1.500000e+008       78509.00       141737.0       4265.000      0.0000000       8113.000       4584.000       309057.2      0.0000000       552117.9       314839.3       138323.0      0.0000000       144311.2       140226.9 
       17203.83       3.000000       3.000000  1.500000e+008       78404.00       141582.0       4276.000      0.0000000       8011.000       4456.000       307619.6      0.0000000       550501.1       314287.4       138491.4      0.0000000       144474.0       140034.9 
       17204.11       3.000000       3.000000  1.500000e+008       78441.00       141649.0       4233.000      0.0000000       8283.000       4567.000       307661.8      0.0000000       551307.2       314179.3       138252.2      0.0000000       144198.1       140234.9 
       17204.42       3.000000       3.000000  1.500000e+008       78277.00       141352.0       4148.000      0.0000000       8020.000       4490.000       307178.1      0.0000000       549709.3       313109.7       138207.5      0.0000000       144381.5       140072.4 
       17204.72       3.000000       3.000000  1.500000e+008       78310.00       141513.0       4237.000      0.0000000       8158.000       4580.000       307640.0      0.0000000       549938.6       314135.8       138257.8      0.0000000       143842.0       139847.9 
       17205.08       3.000000       3.000000  1.500000e+008       78222.00       141278.0       4142.000      0.0000000       8031.000       4539.000       306394.2      0.0000000       547406.9       312587.3       138105.8      0.0000000       144624.7       139701.7 
       17205.33       3.000000       3.000000  1.500000e+008       78315.00       141362.0       4309.000      0.0000000       8120.000       4512.000       306356.4      0.0000000       548543.2       313482.7       138188.9      0.0000000       144715.5       139904.1 
       17205.69       3.000000       3.000000  1.500000e+008       78327.00       141425.0       4137.000      0.0000000       8095.000       4571.000       305985.8      0.0000000       547696.2       312744.9       138133.1      0.0000000       144837.5       140205.3 
       17205.91       3.000000       3.000000  1.500000e+008       78336.00       141554.0       4290.000      0.0000000       8189.000       4391.000       306792.2      0.0000000       549499.4       313795.6       138523.4      0.0000000       144413.6       139822.1 
       17206.27       3.000000       3.000000  1.500000e+008       78455.00       141636.0       4210.000      0.0000000       8135.000       4549.000       306432.4      0.0000000       546950.8       312372.1       137926.0      0.0000000       144456.2       139929.6 
       17206.50       3.000000       3.000000  1.500000e+008       78491.00       141741.0       4183.000      0.0000000       8191.000       4519.000       306319.7      0.0000000       547683.8       312412.8       137859.9      0.0000000       144390.9       139764.1 
       17206.84       3.000000       3.000000  1.500000e+008       78272.00       141397.0       4245.000      0.0000000       7993.000       4488.000       305788.2      0.0000000       547022.1       311859.3       138186.7      0.0000000       144583.2       139886.8 
       17207.14       3.000000       3.000000  1.500000e+008       78418.00       141635.0       4175.000      0.0000000       8097.000       4496.000       305817.1      0.0000000       545470.3       312609.8       138187.9      0.0000000       144626.1       139993.9 
       17207.45       3.000000       3.000000  1.500000e+008       78395.00       141595.0       4195.000      0.0000000       8088.000       4575.000       306075.1      0.0000000       548185.0       312715.5       138481.6      0.0000000       144785.1       139868.4 
       17207.73       3.000000       3.000000  1.500000e+008       78437.00       141710.0       4161.000      0.0000000       8108.000       4603.000       305520.1      0.0000000       545625.4       312035.2       137587.4      0.0000000       144665.8       139631.3 
       17207.99       3.000000       3.000000  1.500000e+008       78353.00       141470.0       4159.000      0.0000000       8225.000       4593.000       304829.6      0.0000000       545673.9       311312.3       138260.5      0.0000000       144907.2       139690.4 
       17208.29       3.000000       3.000000  1.500000e+008       78243.00       141347.0       4065.000      0.0000000       8062.000       4438.000       304533.1      0.0000000       545801.1       311243.6       137872.4      0.0000000       144557.0       139962.9 
       17208.58       3.000000       3.000000  1.500000e+008       78221.00       141311.0       4099.000      0.0000000       8175.000       4462.000       305342.2      0.0000000       545600.8       310680.9       138164.5      0.0000000       144183.5       139815.8 
       17208.92       3.000000       3.000000  1.500000e+008       78066.00       141050.0       4309.000      0.0000000       8067.000       4423.000       304859.1      0.0000000       544499.8       310648.4       138451.3      0.0000000       144819.9       139573.8 
       17209.23       3.000000       3.000000  1.500000e+008       78155.00       141120.0       4103.000      0.0000000       8036.000       4495.000       304487.0      0.0000000       545102.5       310990.8       138273.4      0.0000000       145058.6       139827.2 
       17209.51       3.000000       3.000000  1.500000e+008       78021.00       140900.0       4167.000      0.0000000       7864.000       4561.000       304189.1      0.0000000       543744.0       310928.4       137952.6      0.0000000       145239.3       140079.8 
       17209.83       3.000000       3.000000  1.500000e+008       78008.00       140972.0       4189.000      0.0000000       8129.000       4441.000       304759.3      0.0000000       544262.9       310627.9       138379.0      0.0000000       144329.3       139993.0 
       17210.15       3.000000       3.000000  1.500000e+008       77937.00       140764.0       4075.000      0.0000000       8012.000       4456.000       304005.3      0.0000000       543346.3       309807.8       137976.1      0.0000000       144971.6       139534.7 
       17210.46       3.000000       3.000000  1.500000e+008       77957.00       140876.0       4186.000      0.0000000       7953.000       4427.000       302665.3      0.0000000       542732.6       310126.6       137895.0      0.0000000       145402.9       139709.0 
       17210.68       3.000000       3.000000  1.500000e+008       77924.00       140785.0       4172.000      0.0000000       8126.000       4398.000       303370.2      0.0000000       541952.7       310151.2       137810.6      0.0000000       144780.9       139366.8 
       17211.04       3.000000       3.000000  1.500000e+008       77959.00       140885.0       4222.000      0.0000000       8078.000       4478.000       303809.5      0.0000000       542346.6       309802.2       138103.7      0.0000000       144952.0       139921.6 
       17211.35       3.000000       3.000000  1.500000e+008       77913.00       140818.0       4123.000      0.0000000       8053.000       4470.000       304152.4      0.0000000       544150.1       310553.8       138097.8      0.0000000       144738.0       139811.4 
       17211.61       3.000000       3.000000  1.500000e+008       77953.00       140817.0       4186.000      0.0000000       8168.000       4376.000       303534.1      0.0000000       543335.3       310088.7       137785.1      0.0000000       144908.6       139614.3 
       17211.97       3.000000       3.000000  1.500000e+008       77830.00       140665.0       4117.000      0.0000000       7971.000       4449.000       303268.4      0.0000000       543533.3       310467.7       137857.0      0.0000000       144846.5       139798.1 
       17212.27       3.000000       3.000000  1.500000e+008       77911.00       140821.0       4159.000      0.0000000       8028.000       4447.000       302867.6      0.0000000       544407.3       310367.4       137833.7      0.0000000       144777.8       139730.9 
       17212.52       3.000000       3.000000  1.500000e+008       77730.00       140475.0       4107.000      0.0000000       8036.000       4392.000       302572.7      0.0000000       542074.1       309499.8       138026.0      0.0000000       145018.8       139740.6 
       17212.84       3.000000       3.000000  1.500000e+008       77699.00       140425.0       4159.000      0.0000000       7905.000       4482.000       303172.7      0.0000000       542668.3       309920.1       138073.7      0.0000000       144858.9       139528.0 
       17213.10       3.000000       3.000000  1.500000e+008       77801.00       140572.0       4221.000      0.0000000       7960.000       4466.000       303672.3      0.0000000       544187.0       309988.8       138015.2      0.0000000       144589.0       139511.4 
       17213.41       3.000000       3.000000  1.500000e+008       77722.00       140497.0       4150.000      0.0000000       8049.000       4491.000       303231.2      0.0000000       543391.2       309082.8       137907.3      0.0000000       144929.2       139052.6 
       17213.75       3.000000       3.000000  1.500000e+008       77661.00       140303.0       3994.000      0.0000000       8000.000       4522.000       303591.8      0.0000000       542214.9       308642.5       137611.2      0.0000000       145021.2       139281.5 
       17213.99       3.000000       3.000000  1.500000e+008       77597.00       140240.0       4091.000      0.0000000       8099.000       4458.000       303228.6      0.0000000       542149.1       310007.0       137905.1      0.0000000       144824.3       139653.2 
       17214.37       3.000000       3.000000  1.500000e+008       77745.00       140455.0       4120.000      0.0000000       8100.000       4554.000       303375.7      0.0000000       542969.1       310049.0       138039.9      0.0000000       144942.5       139661.3 
       17214.56       3.000000       3.000000  1.500000e+008       77469.00       140071.0       4091.000      0.0000000       8154.000       4558.000       303393.4      0.0000000       542214.4       309334.5       137920.7      0.0000000       144698.8       139382.2 
       17214.90       3.000000       3.000000  1.500000e+008       77429.00       139943.0       4050.000      0.0000000       7951.000       4395.000       302503.2      0.0000000       541106.5       310016.0       137839.5      0.0000000       144586.2       139650.1 
       17215.18       3.000000       3.000000  1.500000e+008       77385.00       139867.0       4048.000      0.0000000       8049.000       4451.000       302234.8      0.0000000       541721.3       309690.8       137690.6      0.0000000       144602.4       139493.5 
       17215.52       3.000000       3.000000  1.500000e+008       77454.00       140024.0       4113.000      0.0000000       8039.000       4488.000       303025.6      0.0000000       542816.4       309807.8       137612.8      0.0000000       144733.8       139379.9 
       17215.79       3.000000       3.000000  1.500000e+008       77342.00       139825.0       4103.000      0.0000000       7946.000       4500.000       302619.4      0.0000000       543176.1       309524.4       138064.9      0.0000000       144289.1       139470.8 
       17216.09       3.000000       3.000000  1.500000e+008       77269.00       139696.0       4137.000      0.0000000       7894.000       4491.000       303228.7      0.0000000       542503.9       309257.8       138285.8      0.0000000       145314.9       139628.1 
       17216.43       3.000000       3.000000  1.500000e+008       77192.00       139613.0       4245.000      0.0000000       7935.000       4377.000       303218.9      0.0000000       540525.4       308904.1       137659.2      0.0000000       145040.5       139195.8 
       17216.74       3.000000       3.000000  1.500000e+008       78043.00       141174.0       4191.000      0.0000000       8098.000       4475.000       305500.9      0.0000000       547350.2       312759.7       137981.1      0.0000000       144267.8       139583.0 
       17217.00       3.000000       3.000000  1.500000e+008       78080.00       141226.0       4168.000      0.0000000       8051.000       4593.000       306134.1      0.0000000       547680.3       311717.8       138171.8      0.0000000       144479.8       139945.6 
       17217.30       3.000000       3.000000  1.500000e+008       78240.00       141465.0       4272.000      0.0000000       7983.000       4507.000       306821.6      0.0000000       549019.1       313681.8       138252.8      0.0000000       143888.4       140020.9 
       17217.62       3.000000       3.000000  1.500000e+008       78186.00       141388.0       4138.000      0.0000000       8048.000       4552.000       306995.4      0.0000000       548109.4       312440.5       138277.7      0.0000000       144412.4       140346.3 
       17217.91       3.000000       3.000000  1.500000e+008       78150.00       141343.0       4123.000      0.0000000       8127.000       4667.000       306447.1      0.0000000       548450.0       312167.0       138511.3      0.0000000       144445.6       139860.8 
       17218.23       3.000000       3.000000  1.500000e+008       78049.00       141189.0       4265.000      0.0000000       8038.000       4439.000       307258.4      0.0000000       548887.4       312252.1       138208.8      0.0000000       144492.9       139664.3 
       17218.49       3.000000       3.000000  1.500000e+008       78020.00       141182.0       4225.000      0.0000000       8085.000       4529.000       306327.1      0.0000000       547760.3       312825.9       138235.7      0.0000000       143952.2       139912.3 
       17218.77       3.000000       3.000000  1.500000e+008       77977.00       141169.0       4191.000      0.0000000       8242.000       4536.000       306371.3      0.0000000       546872.3       312263.4       138129.9      0.0000000       144205.0       139525.9 
       17219.08       3.000000       3.000000  1.500000e+008       78151.00       141319.0       4156.000      0.0000000       8052.000       4614.000       306834.3      0.0000000       549024.9       313464.5       138161.4      0.0000000       144374.0       140152.8 
       17219.40       3.000000       3.000000  1.500000e+008       77954.00       141099.0       4168.000      0.0000000       8031.000       4535.000       306181.7      0.0000000       547993.1       312242.9       138318.2      0.0000000       144094.3       140010.4 
       17219.68       3.000000       3.000000  1.500000e+008       77889.00       140958.0       4206.000      0.0000000       8042.000       4542.000       304681.8      0.0000000       545892.3       311701.8       137883.1      0.0000000       143838.6       139848.3 
       17220.02       3.000000       3.000000  1.500000e+008       77990.00       141069.0       4103.000      0.0000000       7894.000       4605.000       305557.3      0.0000000       546173.2       311271.9       138234.5      0.0000000       144453.8       139437.2 
       17220.35       3.000000       3.000000  1.500000e+008       77727.00       140671.0       4176.000      0.0000000       8015.000       4521.000       303956.5      0.0000000       545450.4       310486.5       138066.1      0.0000000       144984.5       139787.0 
       17220.59       3.000000       3.000000  1.500000e+008       77985.00       141057.0       4188.000      0.0000000       8153.000       4626.000       304576.8      0.0000000       545369.9       311806.3       138154.6      0.0000000       144369.4       139668.5 
       17220.93       3.000000       3.000000  1.500000e+008       77974.00       141031.0       4229.000      0.0000000       7999.000       4397.000       304286.1      0.0000000       545016.9       310961.5       137914.8      0.0000000       144695.1       139412.9 
       17221.21       3.000000       3.000000  1.500000e+008       77762.00       140674.0       4072.000      0.0000000       8115.000       4559.000       304378.8      0.0000000       544260.3       310029.5       137819.3      0.0000000       144820.0       139754.9 
       17221.50       3.000000       3.000000  1.500000e+008       77879.00       140916.0       4032.000      0.0000000       7929.000       4469.000       304454.0      0.0000000       545830.8       310940.5       137312.0      0.0000000       144193.3       139504.3 
       17221.80       3.000000       3.000000  1.500000e+008       77924.00       141024.0       4139.000      0.0000000       7893.000       4628.000       303145.4      0.0000000       543521.7       310125.5       137540.1      0.0000000       144518.0       139756.5 
       17222.10       3.000000       3.000000  1.500000e+008       77618.00       140510.0       4180.000      0.0000000       7983.000       4583.000       302602.3      0.0000000       541636.4       309086.4       137558.6      0.0000000       144748.6       139418.5 
       17222.46       3.000000       3.000000  1.500000e+008       77691.00       140690.0       4180.000      0.0000000       7997.000       4500.000       302803.3      0.0000000       541822.1       308943.7       137782.9      0.0000000       145005.2       139807.3 
       17222.71       3.000000       3.000000  1.500000e+008       77650.00       140536.0       4140.000      0.0000000       8018.000       4505.000       301909.8      0.0000000       540396.2       308133.6       138114.0      0.0000000       145198.2       139102.7 
       17223.03       3.000000       3.000000  1.500000e+008       77497.00       140292.0       4125.000      0.0000000       8041.000       4552.000       302040.7      0.0000000       540440.6       309418.4       137683.4      0.0000000       145311.6       139459.7 
       17223.29       3.000000       3.000000  1.500000e+008       77408.00       140065.0       4146.000      0.0000000       8052.000       4433.000       301083.7      0.0000000       538973.6       307804.0       137524.8      0.0000000       145243.4       138950.3 
       17223.54       3.000000       3.000000  1.500000e+008       77554.00       140475.0       4162.000      0.0000000       8056.000       4444.000       302679.7      0.0000000       541744.8       308529.1       137941.8      0.0000000       144564.1       139268.7 
       17223.92       3.000000       3.000000  1.500000e+008       77437.00       140290.0       4151.000      0.0000000       7775.000       4359.000       301971.1      0.0000000       539166.8       308487.9       137423.0      0.0000000       144439.4       139398.0 
       17224.20       3.000000       3.000000  1.500000e+008       77333.00       140042.0       4075.000      0.0000000       7979.000       4351.000       300620.1      0.0000000       538225.3       307938.9       137308.4      0.0000000       144866.7       139001.4 
       17224.52       3.000000       3.000000  1.500000e+008       77382.00       140079.0       4204.000      0.0000000       7816.000       4433.000       301404.7      0.0000000       539203.0       308270.8       137681.2      0.0000000       144473.3       139320.3 
       17224.78       3.000000       3.000000  1.500000e+008       77323.00       140093.0       4145.000      0.0000000       8116.000       4419.000       301330.8      0.0000000       538681.3       307069.1       137646.3      0.0000000       144997.0       139303.3 
       17225.09       3.000000       3.000000  1.500000e+008       77272.00       139945.0       4069.000      0.0000000       7891.000       4396.000       301002.3      0.0000000       537514.4       307229.9       137421.3      0.0000000       144434.0       139206.3 
       17225.43       3.000000       3.000000  1.500000e+008       77339.00       140105.0       4054.000      0.0000000       7944.000       4471.000       301746.4      0.0000000       538821.4       307219.9       137594.8      0.0000000       145041.0       139327.6 
       17225.75       3.000000       3.000000  1.500000e+008       77259.00       139949.0       4050.000      0.0000000       7890.000       4337.000       300777.4      0.0000000       538297.6       307201.0       137569.4      0.0000000       144487.3       139145.2 
       17226.06       3.000000       3.000000  1.500000e+008       77119.00       139650.0       4132.000      0.0000000       7867.000       4357.000       300308.1      0.0000000       536028.4       305955.0       137982.8      0.0000000       145078.2       139276.7 
       17227.51       3.086420       3.086420  1.543210e+008       79218.89       143535.2       4236.000      0.0000000       8188.000       4657.000       299554.6      0.0000000       536104.9       305627.6       137628.0      0.0000000       145284.0       139309.2 
       17229.06       3.172839       3.172839  1.586420e+008       81449.78       147640.3       4303.000      0.0000000       8585.000       4830.000       299987.5      0.0000000       535511.1       305997.3       137248.5      0.0000000       144950.3       139110.4 
       17230.61       3.259259       3.259259  1.629630e+008       83240.66       150948.5       4523.000      0.0000000       8751.000       4668.000       298575.9      0.0000000       534090.8       304301.4       137342.9      0.0000000       145599.4       138948.3 
       17232.20       3.345679       3.345679  1.672840e+008       85344.55       154823.6       4522.000      0.0000000       8993.000       4898.000       298493.6      0.0000000       533813.8       304366.3       137627.1      0.0000000       145372.5       139046.2 
       17233.77       3.432099       3.432099  1.716049e+008       87437.45       158628.8       4680.000      0.0000000       9133.000       5005.000       297629.7      0.0000000       532884.4       304051.3       137157.1      0.0000000       145328.6       138917.1 
       17235.38       3.518518       3.518518  1.759259e+008       89281.34       162027.0       4691.000      0.0000000       9297.000       5162.000       296799.3      0.0000000       530624.5       302544.0       137269.6      0.0000000       145627.3       139054.0 
       17237.04       3.604938       3.604938  1.802469e+008       92423.22       167812.1       4836.000      0.0000000       9658.000       5402.000       298638.1      0.0000000       536368.4       305387.0       137825.3      0.0000000       145648.5       139507.3 
       17238.65       3.691358       3.691358  1.845679e+008       94542.11       171724.3       5031.000      0.0000000       9801.000       5535.000       298568.3      0.0000000       533912.6       304756.8       137159.7      0.0000000       145344.8       138842.9 
       17240.32       3.777778       3.777778  1.888889e+008       96654.00       175710.4       5021.000      0.0000000       10107.00       5654.000       298898.8      0.0000000       533335.0       304091.5       137785.1      0.0000000       145704.1       139531.0 
       17242.03       3.864197       3.864197  1.932099e+008       98495.89       179073.6       5255.000      0.0000000       10161.00       5605.000       297009.5      0.0000000       530066.6       302220.3       136823.0      0.0000000       145327.7       138631.6 
       17243.70       3.950617       3.950617  1.975309e+008       100379.8       182533.8       5363.000      0.0000000       10451.00       5889.000       295565.5      0.0000000       530085.2       302366.1       137034.5      0.0000000       145468.8       138684.7 
       17245.43       4.037037       4.037037  2.018519e+008       102270.7       186070.9       5394.000      0.0000000       10823.00       6006.000       294942.9      0.0000000       528181.3       301577.6       137066.4      0.0000000       145983.1       139048.3 
       17247.20       4.123457       4.123457  2.061728e+008       104218.6       189730.1       5489.000      0.0000000       11072.00       5946.000       294146.8      0.0000000       525576.3       300247.2       137020.5      0.0000000       145969.0       138592.7 
       17248.93       4.209877       4.209877  2.104938e+008       105801.4       192507.3       5552.000      0.0000000       10856.00       5996.000       292400.3      0.0000000       522096.0       297744.8       136627.3      0.0000000       146332.2       138113.6 
       17250.71       4.296296       4.296296  2.148148e+008       107368.3       195525.4       5610.000      0.0000000       11071.00       6195.000       290637.9      0.0000000       519413.3       296808.8       136136.7      0.0000000       146237.2       138078.7 
       17252.46       4.382716       4.382716  2.191358e+008       108899.2       198445.6       5898.000      0.0000000       11316.00       6134.000       288118.4      0.0000000       516273.1       294919.5       136035.7      0.0000000       146635.3       137953.5 
       17254.33       4.469136       4.469136  2.234568e+008       110547.1       201476.7       5931.000      0.0000000       11559.00       6350.000       287104.3      0.0000000       512581.5       292877.8       136007.2      0.0000000       146794.6       137538.6 
       17256.14       4.555555       4.555555  2.277778e+008       113621.0       207161.9       6032.000      0.0000000       11900.00       6587.000       289821.0      0.0000000       517695.5       295235.6       136359.5      0.0000000       146963.4       138055.5 
       17258.05       4.641975       4.641975  2.320988e+008       115375.9       210337.0       6022.000      0.0000000       12057.00       6671.000       287980.5      0.0000000       514645.2       294035.9       136140.1      0.0000000       146501.7       138224.6 
       17259.90       4.728395       4.728395  2.364198e+008       117044.8       213521.2       6118.000      0.0000000       12497.00       6590.000       287231.1      0.0000000       513651.1       293127.3       135937.5      0.0000000       146912.4       137673.8 
       17261.80       4.814815       4.814815  2.407407e+008       119169.7       217438.4       6188.000      0.0000000       12454.00       6756.000       287345.2      0.0000000       513737.8       293236.5       136180.1      0.0000000       146745.4       137794.3 
       17263.71       4.901235       4.901235  2.450617e+008       120388.6       219826.5       6190.000      0.0000000       12855.00       6838.000       285323.0      0.0000000       510237.2       291357.7       135692.6      0.0000000       146897.2       137593.3 
       17265.54       4.987655       4.987655  2.493827e+008       122338.4       223344.7       6428.000      0.0000000       12879.00       6989.000       285288.2      0.0000000       509822.3       290829.2       135870.0      0.0000000       146603.5       137592.9 
       17267.58       5.074074       5.074074  2.537037e+008       123911.3       226278.9       6524.000      0.0000000       12958.00       6973.000       283526.4      0.0000000       505740.3       288909.6       135297.6      0.0000000       146688.7       137127.7 
       17269.53       5.160494       5.160494  2.580247e+008       125631.2       229477.0       6552.000      0.0000000       13181.00       7038.000       281758.3      0.0000000       503444.8       287951.5       135407.1      0.0000000       147512.6       136878.5 
       17271.51       5.246913       5.246913  2.623457e+008       127212.1       232527.2       6733.000      0.0000000       13421.00       7064.000       280112.9      0.0000000       500813.6       285841.1       135027.5      0.0000000       147187.6       136402.5 
       17273.50       5.333333       5.333333  2.666667e+008       129299.0       236288.3       6753.000      0.0000000       13862.00       7443.000       279815.0      0.0000000       500381.2       285702.3       135351.4      0.0000000       147877.2       136858.4 
       17275.56       5.419753       5.419753  2.709876e+008       132187.9       241754.5       7010.000      0.0000000       13913.00       7346.000       282140.8      0.0000000       503910.8       287657.8       135278.6      0.0000000       147339.1       136562.2 
       17277.59       5.506173       5.506173  2.753087e+008       133843.8       244800.7       7065.000      0.0000000       14106.00       7537.000       280882.2      0.0000000       501359.3       286563.2       135319.8      0.0000000       147661.4       136706.4 
       17279.61       5.592592       5.592592  2.796296e+008       135723.7       248375.8       7175.000      0.0000000       14233.00       7508.000       280425.3      0.0000000       501778.0       286413.8       135113.1      0.0000000       147154.0       136630.0 
       17281.69       5.679012       5.679012  2.839506e+008       138723.6       253795.0       7105.000      0.0000000       14521.00       7767.000       282084.6      0.0000000       504153.0       287545.6       135092.9      0.0000000       147368.6       136944.9 
       17283.84       5.765432       5.765432  2.882716e+008       140561.4       257252.1       7408.000      0.0000000       14803.00       7910.000       282161.3      0.0000000       504656.8       287895.3       135412.6      0.0000000       147285.5       137000.0 
       17286.00       5.851852       5.851852  2.925926e+008       142520.3       260874.3       7539.000      0.0000000       14875.00       8167.000       281638.6      0.0000000       503658.5       287677.7       135782.4      0.0000000       147551.1       137288.3 
       17288.14       5.938272       5.938272  2.969136e+008       144719.2       264860.5       7580.000      0.0000000       15408.00       8063.000       281226.9      0.0000000       502821.7       286893.1       135110.5      0.0000000       147319.4       136668.0 
       17290.26       6.024692       6.024692  3.012346e+008       147074.1       269254.6       7599.000      0.0000000       15574.00       8169.000       281816.6      0.0000000       503894.0       287589.6       135383.0      0.0000000       147420.0       137260.5 
       17292.46       6.111111       6.111111  3.055556e+008       149272.0       273171.8       7901.000      0.0000000       15736.00       8558.000       281661.4      0.0000000       503417.2       287448.9       135173.7      0.0000000       147152.5       136771.2 
       17294.62       6.197531       6.197531  3.098765e+008       151942.9       278150.9       7801.000      0.0000000       16012.00       8685.000       282564.6      0.0000000       504847.9       288348.9       135599.7      0.0000000       147615.9       137260.7 
       17296.80       6.283951       6.283951  3.141975e+008       156199.8       285953.1       8227.000      0.0000000       16219.00       8770.000       286138.4      0.0000000       512007.2       291839.1       135905.2      0.0000000       147084.4       137852.3 
       17299.10       6.370370       6.370370  3.185185e+008       158043.7       289294.3       8199.000      0.0000000       16620.00       8804.000       284844.4      0.0000000       509490.6       290629.0       135696.6      0.0000000       147258.5       137598.1 
       17301.30       6.456790       6.456790  3.228395e+008       161381.6       295246.4       8309.000      0.0000000       16588.00       9142.000       287282.0      0.0000000       513313.2       293155.7       136041.0      0.0000000       146869.1       137913.1 
       17303.56       6.543210       6.543210  3.271605e+008       163522.4       299104.6       8468.000      0.0000000       17152.00       9197.000       287340.3      0.0000000       512932.1       293038.1       136106.5      0.0000000       146780.4       137635.2 
       17305.87       6.629630       6.629630  3.314815e+008       165743.3       303174.8       8627.000      0.0000000       16989.00       9287.000       286862.2      0.0000000       513212.9       293060.5       135898.2      0.0000000       146750.3       137750.9 
       17308.17       6.716049       6.716049  3.358025e+008       167657.2       306733.9       8790.000      0.0000000       17209.00       9265.000       286329.1      0.0000000       512345.8       291776.8       136140.0      0.0000000       146676.8       137559.5 
       17310.49       6.802469       6.802469  3.401235e+008       169595.1       310308.1       8777.000      0.0000000       17513.00       9319.000       285875.2      0.0000000       510487.3       291762.5       135996.5      0.0000000       146998.1       137343.1 
       17312.82       6.888889       6.888889  3.444445e+008       171298.0       313442.2       8777.000      0.0000000       17903.00       9460.000       285026.1      0.0000000       509360.8       290857.5       135805.5      0.0000000       147093.3       137457.9 
       17315.20       6.975309       6.975309  3.487654e+008       173516.9       317419.4       8961.000      0.0000000       18224.00       9703.000       284960.0      0.0000000       509799.2       290663.0       135679.3      0.0000000       147125.9       137429.9 
       17317.53       7.061728       7.061728  3.530864e+008       176924.8       323827.5       8979.000      0.0000000       18302.00       9910.000       286792.6      0.0000000       513372.4       293230.5       136097.1      0.0000000       147017.4       138188.0 
       17320.00       7.148148       7.148148  3.574074e+008       178651.7       327129.7       9392.000      0.0000000       18665.00       9937.000       286956.0      0.0000000       512569.6       292963.5       135957.6      0.0000000       147217.1       137862.5 
       17322.48       7.234568       7.234568  3.617284e+008       180567.6       330653.9       9336.000      0.0000000       18732.00       10223.00       286521.9      0.0000000       512156.0       292554.7       136053.4      0.0000000       147045.0       138004.9 
       17324.85       7.320988       7.320988  3.660494e+008       182358.4       334226.0       9391.000      0.0000000       19027.00       10270.00       286100.1      0.0000000       511629.0       291907.4       135761.4      0.0000000       147040.3       137505.7 
       17327.34       7.407407       7.407407  3.703704e+008       183582.3       336505.2       9513.000      0.0000000       19079.00       10384.00       284565.8      0.0000000       507900.3       289946.3       135672.0      0.0000000       147202.3       137250.2 
       17329.81       7.493827       7.493827  3.746914e+008       184745.2       338770.3       9574.000      0.0000000       19554.00       10235.00       282376.6      0.0000000       504176.3       287868.8       135654.8      0.0000000       147428.5       137261.3 
       17332.28       7.580247       7.580247  3.790124e+008       186803.1       342432.5       9667.000      0.0000000       19552.00       10427.00       282398.3      0.0000000       504953.7       288155.3       135345.4      0.0000000       147480.7       137163.8 
       17334.79       7.666667       7.666667  3.833333e+008       188006.0       344840.7       9544.000      0.0000000       19511.00       10146.00       280783.5      0.0000000       500888.9       286191.6       135238.7      0.0000000       147501.2       136752.4 
       17337.37       7.753087       7.753087  3.876543e+008       187505.9       344150.8       9527.000      0.0000000       19657.00       10405.00       276444.2      0.0000000       492770.8       281224.0       134562.1      0.0000000       147881.9       136193.9 
       17339.94       7.839506       7.839506  3.919753e+008       189016.8       347052.0       9521.000      0.0000000       19865.00       10352.00       274783.6      0.0000000       491259.8       280535.9       134553.8      0.0000000       148170.4       136063.8 
       17342.45       7.925926       7.925926  3.962963e+008       190964.7       350591.2       9682.000      0.0000000       20220.00       10465.00       274970.3      0.0000000       491122.6       280293.5       134549.8      0.0000000       148342.7       136169.3 
       17345.03       8.012346       8.012346  4.006173e+008       192483.6       353423.3       9803.000      0.0000000       20232.00       10625.00       273824.2      0.0000000       488634.4       279316.9       134095.4      0.0000000       148205.4       135897.0 
       17347.64       8.098765       8.098765  4.049383e+008       193186.4       355132.5       9901.000      0.0000000       20692.00       10585.00       271973.6      0.0000000       485097.3       277513.5       133786.2      0.0000000       148401.5       135420.0 
       17350.30       8.185184       8.185184  4.092592e+008       194904.3       358183.6       9834.000      0.0000000       20483.00       10707.00       270530.7      0.0000000       483373.6       276072.8       133405.4      0.0000000       148446.7       135344.1 
       17352.92       8.271605       8.271605  4.135802e+008       195908.2       360095.8       10011.00      0.0000000       20518.00       10652.00       268988.8      0.0000000       480567.6       274424.7       133299.9      0.0000000       148722.0       135162.6 
       17355.66       8.358025       8.358025  4.179012e+008       197695.1       363502.9       9993.000      0.0000000       20915.00       10633.00       268178.9      0.0000000       479093.7       273538.7       133257.9      0.0000000       148797.2       134929.4 
       17358.30       8.444445       8.444445  4.222222e+008       199860.0       367622.1       10119.00      0.0000000       20821.00       10871.00       268514.3      0.0000000       479784.7       274142.7       133345.4      0.0000000       148692.9       135066.0 
       17361.02       8.530865       8.530865  4.265432e+008       201006.9       369868.3       10241.00      0.0000000       21164.00       11136.00       268280.4      0.0000000       477861.0       272903.9       133261.4      0.0000000       148840.3       134703.5 
       17363.70       8.617284       8.617284  4.308642e+008       202159.8       372260.4       10407.00      0.0000000       21518.00       10913.00       267141.5      0.0000000       476105.5       271917.9       133469.0      0.0000000       149181.3       135034.9 
       17366.44       8.703704       8.703704  4.351852e+008       203278.7       374475.6       10264.00      0.0000000       21627.00       11127.00       265085.3      0.0000000       473160.4       270524.5       132744.2      0.0000000       148945.4       134390.8 
       17369.19       8.790123       8.790123  4.395061e+008       204406.6       376767.8       10341.00      0.0000000       21889.00       11031.00       263479.0      0.0000000       469893.2       268500.1       132431.1      0.0000000       148912.6       134107.9 
       17371.99       8.876543       8.876543  4.438272e+008       205780.4       379211.9       10462.00      0.0000000       21705.00       11130.00       262063.3      0.0000000       467046.6       267105.1       132533.6      0.0000000       149019.5       133998.7 
       17374.80       8.962963       8.962963  4.481482e+008       207500.3       382454.1       10540.00      0.0000000       21905.00       11276.00       261498.2      0.0000000       466692.5       266515.8       132167.5      0.0000000       149094.0       133861.9 
       17377.58       9.049383       9.049383  4.524692e+008       209704.2       386566.2       10569.00      0.0000000       21935.00       11540.00       262148.8      0.0000000       467403.1       266973.4       132241.5      0.0000000       148989.5       133845.6 
       17380.47       9.135803       9.135803  4.567902e+008       210901.1       389202.4       10630.00      0.0000000       22533.00       11380.00       260602.4      0.0000000       465313.1       265981.4       132141.6      0.0000000       148983.3       133842.8 
       17383.26       9.222222       9.222222  4.611111e+008       212708.0       392622.6       10744.00      0.0000000       22705.00       11447.00       260328.6      0.0000000       464725.6       265656.5       132125.8      0.0000000       149290.4       133827.6 
       17386.15       9.308641       9.308641  4.654321e+008       213935.9       394956.7       10633.00      0.0000000       22671.00       11684.00       259235.3      0.0000000       462372.3       264077.4       131712.8      0.0000000       149102.8       133370.9 
       17389.04       9.395061       9.395061  4.697531e+008       215577.8       397997.9       10693.00      0.0000000       22704.00       11622.00       258200.0      0.0000000       460112.3       262961.2       131666.7      0.0000000       149369.8       133256.2 
       17391.96       9.481482       9.481482  4.740741e+008       216837.7       400385.0       10552.00      0.0000000       23003.00       11655.00       256845.2      0.0000000       457886.3       261541.5       131539.8      0.0000000       149288.2       132892.0 
       17394.95       9.567902       9.567902  4.783951e+008       218225.6       403191.2       10835.00      0.0000000       22881.00       11610.00       255166.5      0.0000000       454825.8       259821.3       130939.8      0.0000000       149578.1       132609.0 
       17397.88       9.654322       9.654322  4.827161e+008       219824.4       406119.3       10852.00      0.0000000       23109.00       11613.00       254599.6      0.0000000       453916.3       259171.6       130703.9      0.0000000       149137.4       132357.4 
       17400.84       9.740741       9.740741  4.870371e+008       223538.3       412948.5       11097.00      0.0000000       23376.00       11959.00       255941.2      0.0000000       457049.6       261463.4       131018.6      0.0000000       149436.9       133099.4 
       17403.82       9.827161       9.827161  4.913580e+008       224934.2       415565.7       11382.00      0.0000000       23810.00       11885.00       255636.3      0.0000000       456356.3       260577.1       130948.7      0.0000000       149658.3       132944.4 
       17406.84       9.913580       9.913580  4.956790e+008       227977.1       421116.8       11186.00      0.0000000       23885.00       12102.00       257217.2      0.0000000       457361.7       261925.7       131432.4      0.0000000       149377.3       132990.5 
       17409.84       10.00000       10.00000  5.000000e+008       229608.0       423994.0       11156.00      0.0000000       24137.00       12167.00       255786.1      0.0000000       456361.8       260482.5       130904.2      0.0000000       149436.6       132610.3 
